# Created by:        SpecsLab Prodigy, Version 4.25.3-r60155
#
# XY-Serializer Export Settings:
#   Comment Prefix:           #
#   Output meta data:         yes
#   Energy Axis:              Binding Energy
#   Count Rate:               Counts per Second
#   Separate Scan Data:       no
#   Separate Channel Data:    no
#   External Channel Data:    yes
#   Transmission Function:    no
#   ErrorBar:                 no
#   Operation Results:        yes
#   Time Zone Format:         Local Time
#
# Group:             Spectrum Group
#
# Region:            S2p
# Acquisition Date:  10/26/17 00:44:00 UTC-2
# Analysis Method:   XPS
# Analyzer:          Phoibos
# Analyzer Lens:     MediumArea:1.5kV
# Analyzer Slit:     5:7x20\B:open
# Scan Mode:         FixedAnalyzerTransmission
# Curves/Scan:       1
# Values/Curve:      91
# Dwell Time:        0.5
# Excitation Energy: 523
# Binding Energy:    168
# Pass Energy:       30
# Bias Voltage:      -0.5
# Detector Voltage:  1400
# Eff. Workfunction: 4.434
# Source:            Monochromator
# Comment:
# OrdinateRange:     [-14.731800, 14.731800]
#
# Cycle: 0
# Number of Scans: 2
#
# Cycle: 0, Curve: 0
#
# ColumnLabels: energy counts/s
#
168  11843.479
167.9  11748.082
167.8  11830.609
167.7  11766.881
167.6  11909.205
167.5  11989.193
167.4  12005.416
167.3  11881.351
167.2  11803.783
167.1  11690.275
167  11656.739
166.9  12021.177
166.8  11886.102
166.7  11940.51
166.6  12188.093
166.5  12064.116
166.4  11935.993
166.3  11650.668
166.2  12007.919
166.1  12011.705
166  12084.34
165.9  11964.339
165.8  12039.668
165.7  11853.388
165.6  11685.746
165.5  11924.398
165.4  11877.541
165.3  11948.868
165.2  11691.597
165.1  11843.275
165  11864.627
164.9  11728.514
164.8  11909.455
164.7  12019.67
164.6  11919.072
164.5  11919.09
164.4  11855.252
164.3  11717.312
164.2  11798.459
164.1  12160.933
164  12307.899
163.9  12629.132
163.8  12583.032
163.7  12932.214
163.6  12779.047
163.5  12867.85
163.4  12911.218
163.3  12669.324
163.2  12776.315
163.1  12632.846
163  12576.511
162.9  12681.215
162.8  12491.013
162.7  12568.49
162.6  13169.634
162.5  13359.556
162.4  13132.451
162.3  13221.76
162.2  13311.952
162.1  13146.163
162  13178.413
161.9  12871.739
161.8  12303.817
161.7  11855.561
161.6  11596.994
161.5  11592.738
161.4  11665.205
161.3  11423.733
161.2  11323.513
161.1  11485.568
161  11366.603
160.9  11350.585
160.8  11247.66
160.7  11326.655
160.6  11071.913
160.5  11495.631
160.4  11588.6
160.3  11279.843
160.2  11251.014
160.1  11307.222
160  11432.87
159.9  11240.17
159.8  11253.131
159.7  11433.036
159.6  11303.14
159.5  11281.074
159.4  11046.036
159.3  11183.261
159.2  11299.294
159.1  11296.364
159  11360.99

